"BIO-KINE ASCII FILE"
"_COMMENT"	"Diode array time slice : time = 0.002 s"
"_UNITX"	"nm"
"_UNITY"	"Counts"
"_DELTAX"	0
"_DATA"
398.866	1
399.694	11
400.521	-2
401.349	-2
402.176	15
403.004	4
403.831	1
404.659	13
405.486	12
406.313	-2
407.14	11
407.968	7
408.795	2
409.622	-13
410.449	2
411.276	11
412.102	2
412.929	0
413.756	6
414.583	-3
415.409	8
416.236	-1
417.062	-9
417.889	-2
418.715	-4
419.542	2
420.368	-12
421.194	4
422.02	-5
422.847	-8
423.673	10
424.499	12
425.325	9
426.15	-10
426.976	3
427.802	-10
428.628	-4
429.454	1
430.279	26
431.105	-6
431.93	3
432.756	6
433.581	7
434.406	-3
435.232	-1
436.057	5
436.882	4
437.707	-5
438.532	-5
439.357	6
440.182	-12
441.007	-12
441.832	-3
442.657	-4
443.482	2
444.306	-1
445.131	15
445.956	12
446.78	-4
447.604	12
448.429	12
449.253	9
450.078	9
450.902	14
451.726	2
452.55	-4
453.374	9
454.198	-16
455.022	13
455.846	-10
456.67	-5
457.494	6
458.317	7
459.141	2
459.965	-13
460.788	-2
461.612	-12
462.435	-9
463.259	5
464.082	1
464.905	11
465.728	5
466.552	-4
467.375	-6
468.198	9
469.021	-1
469.844	8
470.667	11
471.489	8
472.312	-5
473.135	0
473.958	5
474.78	-15
475.603	6
476.425	-2
477.248	8
478.07	-7
478.892	5
479.715	-1
480.537	-24
481.359	-16
482.181	0
483.003	-7
483.825	-6
484.647	9
485.469	0
486.291	0
487.113	16
487.934	10
488.756	-5
489.578	-5
490.399	11
491.221	-7
492.042	0
492.864	6
493.685	-7
494.506	2
495.327	0
496.148	1
496.97	1
497.791	0
498.612	5
499.433	9
500.253	-1
501.074	0
501.895	9
502.716	-11
503.536	-7
504.357	-10
505.178	1
505.998	-3
506.818	5
507.639	11
508.459	-7
509.279	4
510.1	9
510.92	1
511.74	-15
512.56	11
513.38	-2
514.2	3
515.02	10
515.84	-8
516.659	8
517.479	4
518.299	-3
519.118	-20
519.938	5
520.757	-3
521.577	1
522.396	-2
523.215	2
524.035	3
524.854	0
525.673	-7
526.492	-10
527.311	-7
528.13	21
528.949	-5
529.768	1
530.587	-1
531.406	4
532.224	0
533.043	13
533.862	12
534.68	9
535.499	-7
536.317	1
537.135	2
537.954	8
538.772	19
539.59	12
540.408	4
541.226	-4
542.044	-12
542.862	-2
543.68	-3
544.498	-16
545.316	-12
546.134	-2
546.951	-3
547.769	9
548.587	1
549.404	1
550.222	-3
551.039	-4
551.856	6
552.674	-6
553.491	10
554.308	-10
555.125	9
555.942	-3
556.759	-5
557.576	7
558.393	1
559.21	7
560.027	7
560.844	5
561.66	-6
562.477	1
563.294	18
564.11	11
564.927	-1
565.743	14
566.559	8
567.376	12
568.192	3
569.008	8
569.824	18
570.64	-6
571.456	2
572.272	2
573.088	-1
573.904	2
574.72	-5
575.536	9
576.351	-6
577.167	2
577.982	18
578.798	0
579.613	-3
580.429	-3
581.244	8
582.06	-3
582.875	-1
583.69	6
584.505	9
585.32	5
586.135	17
586.95	-15
587.765	-3
588.58	6
589.395	1
590.209	2
591.024	-19
591.839	2
592.653	5
593.468	2
594.282	-17
595.097	-1
595.911	11
596.725	-1
597.54	-19
598.354	-1
599.168	-4
599.982	-10
600.796	14
601.61	15
602.424	-3
603.238	-2
604.051	3
604.865	-6
605.679	3
606.492	2
607.306	2
608.12	-22
608.933	8
609.746	-7
610.56	-6
611.373	0
612.186	17
612.999	6
613.813	-9
614.626	14
615.439	7
616.252	7
617.064	-4
617.877	13
618.69	1
619.503	1
620.315	12
621.128	2
621.941	-11
622.753	-5
623.566	-4
624.378	-6
625.19	-3
626.003	12
626.815	2
627.627	5
628.439	0
629.251	-1
630.063	15
630.875	5
631.687	5
632.499	10
633.311	-4
634.122	10
634.934	5
635.746	9
636.557	9
637.369	8
638.18	2
638.992	15
639.803	19
640.614	10
641.425	-8
642.237	9
643.048	14
643.859	2
644.67	5
645.481	0
646.291	10
647.102	17
647.913	7
648.724	19
649.534	1
650.345	17
651.156	3
651.966	32
652.777	12
653.587	34
654.397	69
655.208	236
656.018	641
656.828	1012
657.638	1163
658.448	1176
659.258	1159
660.068	1137
660.878	1097
661.688	1040
662.497	1012
663.307	969
664.117	921
664.926	894
665.736	847
666.545	816
667.355	768
668.164	719
668.974	706
669.783	686
670.592	689
671.401	708
672.21	721
673.019	782
673.828	864
674.637	927
675.446	994
676.255	1052
677.064	1102
677.872	1154
678.681	1207
679.49	1267
680.298	1305
681.107	1312
681.915	1303
682.723	1354
683.532	1333
684.34	1340
685.148	1335
685.956	1346
686.764	1357
687.573	1336
688.38	1360
689.188	1377
689.996	1352
690.804	1357
691.612	1342
692.42	1347
693.227	1351
694.035	1359
694.842	1358
695.65	1363
696.457	1371
697.265	1381
698.072	1371
698.879	1373
699.686	1361
700.493	1361
701.301	1368
702.108	1369
702.915	1368
703.721	1367
704.528	1375
705.335	1402
706.142	1397
706.949	1409
707.755	1403
708.562	1413
709.368	1401
710.175	1404
710.981	1416
711.788	1409
712.594	1439
713.4	1412
714.206	1434
715.013	1447
715.819	1453
716.625	1445
717.431	1466
718.237	1444
719.042	1459
719.848	1455
720.654	1466
721.46	1467
722.265	1471
723.071	1450
723.876	1477
724.682	1496
725.487	1490
726.293	1514
727.098	1517
727.903	1545
728.708	1530
729.513	1539
730.318	1549
731.124	1555
731.928	1552
732.733	1549
733.538	1564
734.343	1559
735.148	1566
735.952	1555
736.757	1568
737.562	1584
738.366	1590
739.171	1593
739.975	1608
740.779	1618
741.584	1602
742.388	1610
743.192	1599
743.996	1603
744.8	1620
745.604	1628
746.408	1602
747.212	1632
748.016	1628
748.82	1654
749.624	1645
750.427	1643
751.231	1651
752.034	1679
752.838	1661
753.641	1658
754.445	1666
755.248	1676
756.051	1674
756.855	1679
757.658	1685
758.461	1671
759.264	1673
760.067	1683
760.87	1685
761.673	1671
762.476	1697
763.279	1692
764.081	1694
764.884	1690
765.687	1718
766.489	1697
767.292	1694
768.094	1698
768.896	1695
769.699	1695
770.501	1680
771.303	1665
772.105	1660
772.908	1662
773.71	1663
774.512	1650
775.314	1639
776.115	1626
776.917	1675
777.719	1638
778.521	1648
779.323	1630
780.124	1639
780.926	1623
781.727	1627
782.529	1623
783.33	1618
784.131	1611
784.933	1600
785.734	1599
786.535	1589
787.336	1584
788.137	1579
788.938	1579
789.739	1562
790.54	1570
791.341	1565
792.142	1559
792.942	1557
793.743	1554
794.544	1551
795.344	1549
796.145	1533
796.945	1530
797.745	1545
798.546	1544
799.346	1530
800.146	1512
800.946	1497
801.747	1497
802.547	1490
803.347	1477
804.147	1473
804.946	1473
805.746	1471
806.546	1456
807.346	1469
808.145	1448
808.945	1456
809.745	1465
810.544	1439
811.344	1460
812.143	1440
812.942	1418
813.741	1441
814.541	1407
815.34	1420
816.139	1413
816.938	1416
817.737	1389
818.536	1390
819.335	1370
820.134	1371
820.932	1359
821.731	1364
822.53	1362
823.328	1354
824.127	1350
824.925	1338
825.724	1352
826.522	1340
827.32	1334
828.119	1325
828.917	1337
829.715	1314
830.513	1313
831.311	1296
832.109	1305
832.907	1302
833.705	1279
834.503	1268
835.301	1255
836.098	1258
836.896	1250
837.694	1266
838.491	1257
839.289	1231
840.086	1226
840.883	1218
841.681	1207
842.478	1225
843.275	1205
844.072	1194
844.869	1183
845.666	1190
846.463	1178
847.26	1170
848.057	1155
848.854	1161
849.651	1138
850.447	1123
851.244	1121
852.041	1097
852.837	1096
853.634	1062
854.43	1074
855.226	1044
856.023	1034
856.819	1053
857.615	1045
858.411	1021
859.207	1020
860.003	995
860.799	990
861.595	981
862.391	985
863.187	969
863.983	967
864.778	957
865.574	953
866.37	939
867.165	936
867.961	926
868.756	924
869.551	925
870.347	913
871.142	879
871.937	881
872.732	876
873.527	872
874.322	862
875.117	850
875.912	847
876.707	848
877.502	850
878.297	840
879.091	835
879.886	831
880.681	828
881.475	803
882.27	822
883.064	799
883.858	807
884.653	799
885.447	786
886.241	791
887.035	785
887.829	768
888.623	771
889.417	767
890.211	750
891.005	746
891.799	747
892.593	735
893.386	723
894.18	714
894.973	718
895.767	704
896.56	693
897.354	684
898.147	700
898.94	687
899.734	690
900.527	671
901.32	651
902.113	655
902.906	659
903.699	634
904.492	633
905.285	628
906.078	626
906.87	614
907.663	610
908.456	593
909.248	594
910.041	605
910.833	577
911.625	578
912.418	559
913.21	569
914.002	567
914.795	579
915.587	563
916.379	548
917.171	542
917.963	524
918.755	525
919.546	520
920.338	508
921.13	534
921.922	507
922.713	481
923.505	486
924.296	495
925.088	481
925.879	463
926.67	463
927.462	462
928.253	449
929.044	457
929.835	436
930.626	431
931.417	430
932.208	419
932.999	398
933.79	398
934.581	375
935.371	355
936.162	358
936.953	346
937.743	316
938.534	301
939.324	306
940.115	289
940.905	276
941.695	272
942.485	271
943.276	275
944.066	261
944.856	267
945.646	266
946.436	259
947.226	252
948.015	258
948.805	263
949.595	255
950.385	271
951.174	269
951.964	278
952.753	275
953.543	270
954.332	267
955.121	265
955.911	276
956.7	271
957.489	275
958.278	271
959.067	261
959.856	271
960.645	249
961.434	260
962.223	257
963.012	242
963.8	260
964.589	261
965.378	261
966.166	254
966.955	263
967.743	249
968.531	244
969.32	251
970.108	233
970.896	244
971.684	243
972.472	223
973.26	222
974.048	229
974.836	218
975.624	227
976.412	225
977.2	219
977.988	220
978.775	219
979.563	201
980.35	223
981.138	222
981.925	205
982.713	210
983.5	199
984.287	188
985.074	203
985.862	194
986.649	191
987.436	201
988.223	186
989.01	186
989.797	179
990.583	187
991.37	184
992.157	184
992.943	167
993.73	178
994.517	177
995.303	164
996.089	178
996.876	162
997.662	162
998.448	179
999.235	166
1000.02	141
