"BIO-KINE ASCII FILE"
"_COMMENT"	"Diode array time slice : time = 0.002 s"
"_UNITX"	"nm"
"_UNITY"	"Counts"
"_DELTAX"	0
"_DATA"
398.866	6
399.694	13
400.521	-3
401.349	-5
402.176	8
403.004	0
403.831	11
404.659	12
405.486	12
406.313	1
407.14	5
407.968	-1
408.795	15
409.622	-20
410.449	-4
411.276	11
412.102	-7
412.929	7
413.756	0
414.583	-2
415.409	-3
416.236	3
417.062	-9
417.889	-5
418.715	-12
419.542	-3
420.368	0
421.194	1
422.02	11
422.847	-1
423.673	-12
424.499	3
425.325	3
426.15	8
426.976	0
427.802	9
428.628	-9
429.454	13
430.279	17
431.105	-12
431.93	-11
432.756	11
433.581	6
434.406	9
435.232	-5
436.057	-3
436.882	3
437.707	3
438.532	19
439.357	2
440.182	11
441.007	-10
441.832	-4
442.657	-4
443.482	11
444.306	-9
445.131	9
445.956	3
446.78	9
447.604	-4
448.429	-3
449.253	14
450.078	-6
450.902	3
451.726	22
452.55	-8
453.374	17
454.198	-8
455.022	14
455.846	-16
456.67	3
457.494	5
458.317	6
459.141	-8
459.965	-1
460.788	-5
461.612	-2
462.435	-4
463.259	4
464.082	-2
464.905	14
465.728	-1
466.552	-12
467.375	6
468.198	-4
469.021	-6
469.844	5
470.667	-11
471.489	-2
472.312	1
473.135	1
473.958	6
474.78	-9
475.603	7
476.425	-3
477.248	8
478.07	-11
478.892	8
479.715	1
480.537	-10
481.359	1
482.181	2
483.003	-7
483.825	-11
484.647	13
485.469	-1
486.291	8
487.113	4
487.934	5
488.756	2
489.578	-12
490.399	13
491.221	-5
492.042	18
492.864	9
493.685	-10
494.506	-6
495.327	2
496.148	10
496.97	-13
497.791	-2
498.612	-4
499.433	-2
500.253	11
501.074	-5
501.895	8
502.716	-18
503.536	-5
504.357	-14
505.178	32
505.998	-2
506.818	-4
507.639	6
508.459	7
509.279	-14
510.1	6
510.92	-3
511.74	-8
512.56	2
513.38	-2
514.2	-2
515.02	-6
515.84	-10
516.659	11
517.479	5
518.299	3
519.118	-14
519.938	5
520.757	5
521.577	-4
522.396	1
523.215	-2
524.035	12
524.854	6
525.673	2
526.492	-17
527.311	-1
528.13	12
528.949	-10
529.768	3
530.587	0
531.406	-2
532.224	7
533.043	2
533.862	10
534.68	1
535.499	-6
536.317	4
537.135	-6
537.954	3
538.772	5
539.59	-4
540.408	-5
541.226	-10
542.044	-1
542.862	-1
543.68	-2
544.498	-4
545.316	3
546.134	8
546.951	2
547.769	-5
548.587	4
549.404	1
550.222	-1
551.039	1
551.856	2
552.674	2
553.491	-5
554.308	-13
555.125	2
555.942	4
556.759	1
557.576	-9
558.393	-6
559.21	-3
560.027	-4
560.844	5
561.66	-8
562.477	4
563.294	6
564.11	-7
564.927	1
565.743	20
566.559	-3
567.376	13
568.192	-6
569.008	3
569.824	23
570.64	-3
571.456	6
572.272	-4
573.088	8
573.904	0
574.72	-10
575.536	16
576.351	-1
577.167	-2
577.982	7
578.798	1
579.613	-4
580.429	-9
581.244	8
582.06	-9
582.875	18
583.69	-6
584.505	2
585.32	4
586.135	11
586.95	2
587.765	5
588.58	-13
589.395	1
590.209	11
591.024	-14
591.839	4
592.653	1
593.468	6
594.282	-12
595.097	-3
595.911	9
596.725	0
597.54	-18
598.354	-6
599.168	5
599.982	-20
600.796	-2
601.61	2
602.424	5
603.238	3
604.051	11
604.865	0
605.679	4
606.492	8
607.306	-3
608.12	-6
608.933	6
609.746	-3
610.56	-2
611.373	4
612.186	5
612.999	-7
613.813	-13
614.626	23
615.439	-8
616.252	-2
617.064	-3
617.877	5
618.69	0
619.503	-2
620.315	9
621.128	2
621.941	-4
622.753	2
623.566	3
624.378	2
625.19	-16
626.003	8
626.815	-2
627.627	2
628.439	1
629.251	-11
630.063	4
630.875	-2
631.687	7
632.499	-3
633.311	-8
634.122	18
634.934	3
635.746	12
636.557	-3
637.369	0
638.18	-5
638.992	-5
639.803	22
640.614	5
641.425	-9
642.237	5
643.048	9
643.859	1
644.67	-1
645.481	-7
646.291	-1
647.102	3
647.913	18
648.724	4
649.534	-4
650.345	6
651.156	-9
651.966	9
652.777	0
653.587	10
654.397	17
655.208	47
656.018	112
656.828	208
657.638	213
658.448	213
659.258	222
660.068	220
660.878	205
661.688	192
662.497	197
663.307	193
664.117	165
664.926	166
665.736	168
666.545	143
667.355	153
668.164	139
668.974	151
669.783	138
670.592	126
671.401	143
672.21	128
673.019	141
673.828	166
674.637	178
675.446	206
676.255	211
677.064	210
677.872	227
678.681	234
679.49	258
680.298	263
681.107	248
681.915	252
682.723	259
683.532	253
684.34	267
685.148	279
685.956	254
686.764	272
687.573	265
688.38	266
689.188	281
689.996	272
690.804	278
691.612	272
692.42	268
693.227	269
694.035	275
694.842	286
695.65	294
696.457	285
697.265	297
698.072	286
698.879	283
699.686	278
700.493	282
701.301	280
702.108	279
702.915	268
703.721	286
704.528	279
705.335	292
706.142	304
706.949	291
707.755	297
708.562	301
709.368	299
710.175	297
710.981	294
711.788	305
712.594	326
713.4	291
714.206	309
715.013	310
715.819	316
716.625	296
717.431	321
718.237	310
719.042	314
719.848	308
720.654	318
721.46	319
722.265	316
723.071	313
723.876	319
724.682	314
725.487	319
726.293	330
727.098	340
727.903	334
728.708	344
729.513	340
730.318	343
731.124	334
731.928	328
732.733	348
733.538	351
734.343	351
735.148	346
735.952	344
736.757	345
737.562	356
738.366	348
739.171	350
739.975	365
740.779	363
741.584	357
742.388	357
743.192	362
743.996	352
744.8	367
745.604	372
746.408	356
747.212	377
748.016	371
748.82	377
749.624	381
750.427	374
751.231	382
752.034	399
752.838	377
753.641	379
754.445	384
755.248	392
756.051	385
756.855	387
757.658	395
758.461	381
759.264	393
760.067	396
760.87	402
761.673	392
762.476	395
763.279	396
764.081	401
764.884	402
765.687	424
766.489	411
767.292	391
768.094	415
768.896	399
769.699	409
770.501	399
771.303	398
772.105	400
772.908	397
773.71	418
774.512	403
775.314	401
776.115	389
776.917	405
777.719	388
778.521	396
779.323	402
780.124	397
780.926	388
781.727	392
782.529	397
783.33	393
784.131	395
784.933	388
785.734	403
786.535	375
787.336	376
788.137	386
788.938	391
789.739	384
790.54	384
791.341	397
792.142	380
792.942	389
793.743	386
794.544	390
795.344	382
796.145	375
796.945	369
797.745	391
798.546	394
799.346	382
800.146	389
800.946	392
801.747	379
802.547	370
803.347	375
804.147	368
804.946	362
805.746	375
806.546	366
807.346	371
808.145	370
808.945	365
809.745	384
810.544	352
811.344	385
812.143	363
812.942	362
813.741	367
814.541	366
815.34	358
816.139	355
816.938	365
817.737	368
818.536	364
819.335	361
820.134	352
820.932	344
821.731	336
822.53	360
823.328	347
824.127	348
824.925	339
825.724	351
826.522	358
827.32	355
828.119	345
828.917	359
829.715	336
830.513	342
831.311	348
832.109	328
832.907	343
833.705	357
834.503	325
835.301	331
836.098	324
836.896	341
837.694	338
838.491	342
839.289	313
840.086	326
840.883	327
841.681	333
842.478	335
843.275	321
844.072	323
844.869	320
845.666	335
846.463	319
847.26	328
848.057	312
848.854	325
849.651	299
850.447	302
851.244	320
852.041	290
852.837	309
853.634	282
854.43	292
855.226	287
856.023	286
856.819	286
857.615	284
858.411	280
859.207	288
860.003	276
860.799	255
861.595	251
862.391	278
863.187	258
863.983	269
864.778	259
865.574	267
866.37	247
867.165	263
867.961	258
868.756	246
869.551	260
870.347	257
871.142	237
871.937	240
872.732	238
873.527	227
874.322	243
875.117	238
875.912	231
876.707	245
877.502	240
878.297	235
879.091	238
879.886	225
880.681	228
881.475	223
882.27	240
883.064	223
883.858	236
884.653	232
885.447	226
886.241	216
887.035	225
887.829	204
888.623	240
889.417	227
890.211	211
891.005	222
891.799	222
892.593	206
893.386	205
894.18	205
894.973	203
895.767	201
896.56	198
897.354	195
898.147	195
898.94	196
899.734	200
900.527	195
901.32	182
902.113	193
902.906	195
903.699	178
904.492	186
905.285	174
906.078	179
906.87	173
907.663	192
908.456	171
909.248	164
910.041	172
910.833	166
911.625	165
912.418	153
913.21	169
914.002	162
914.795	166
915.587	160
916.379	167
917.171	161
917.963	164
918.755	164
919.546	150
920.338	148
921.13	175
921.922	149
922.713	139
923.505	147
924.296	148
925.088	143
925.879	146
926.67	147
927.462	127
928.253	137
929.044	134
929.835	139
930.626	142
931.417	131
932.208	131
932.999	131
933.79	122
934.581	106
935.371	121
936.162	104
936.953	103
937.743	93
938.534	84
939.324	96
940.115	100
940.905	78
941.695	87
942.485	87
943.276	70
944.066	74
944.856	85
945.646	102
946.436	81
947.226	72
948.015	89
948.805	77
949.595	70
950.385	99
951.174	79
951.964	88
952.753	86
953.543	76
954.332	79
955.121	74
955.911	85
956.7	88
957.489	99
958.278	73
959.067	66
959.856	90
960.645	72
961.434	89
962.223	89
963.012	75
963.8	88
964.589	92
965.378	89
966.166	79
966.955	82
967.743	93
968.531	75
969.32	76
970.108	63
970.896	72
971.684	76
972.472	67
973.26	58
974.048	78
974.836	69
975.624	81
976.412	81
977.2	57
977.988	76
978.775	66
979.563	63
980.35	70
981.138	73
981.925	66
982.713	59
983.5	64
984.287	56
985.074	63
985.862	61
986.649	65
987.436	53
988.223	65
989.01	67
989.797	54
990.583	57
991.37	61
992.157	50
992.943	57
993.73	66
994.517	55
995.303	56
996.089	51
996.876	52
997.662	57
998.448	45
999.235	57
1000.02	32
